[CRDS Header]
FileType=Wavelength Monitor Calibration
Filename=NCDS_sim.wlm
Date=20170512
Time=154851

[Parameters]
laser_current=36000.00
etalon1_offset=6000.00
reference1_offset=6000.00
etalon2_offset=6000.00
reference2_offset=6000.00

[Data column names]
0=Laser temperature
1=Wavenumber
2=Wavelength ratio 1
3=Wavelength ratio 2
4=Etalon temperature
5=Etalon 1 (offset removed)
6=Reference 1 (offset removed)
7=Etalon 2 (offset removed)
8=Reference 2 (offset removed)
9=Points averaged

[Data]
    8.000   7016.17451   0.63525   0.01863    45.000  17759.00  27956.00    680.00  36495.00  27
    8.503   7015.94547   0.22000   0.08575    45.000   7281.00  33095.70   3020.50  35226.05  20
    9.005   7015.71643   0.00308   0.44459    45.000    112.65  36581.20  13326.20  29974.45  20
    9.505   7015.48739   0.13500   0.84171    45.000   4620.81  34228.52  21645.57  25716.19  21
   10.005   7015.25835   0.52232   0.99948    45.000  15092.00  28894.20  24285.20  24297.80  20
   10.505   7015.02931   0.89404   0.80777    45.000  22453.55  25114.85  20910.15  25886.50  20
   11.005   7014.80027   0.99004   0.40075    45.000  24000.95  24242.50  12099.60  30193.00  20
   11.505   7014.57123   0.74328   0.06318    45.000  19586.19  26351.05   2213.57  35037.38  21
   12.005   7014.34219   0.32638   0.03111    45.000  10113.85  30988.40   1104.25  35493.30  20
   12.505   7014.11315   0.03086   0.32704    45.000   1092.55  35400.20  10103.55  30894.80  20
   13.005   7013.88411   0.06355   0.74394    45.000   2207.95  34743.70  19438.00  26128.50  20
   13.505   7013.65507   0.40149   0.99019    45.000  11953.00  29772.10  23676.05  23910.71  21
   14.005   7013.42603   0.80832   0.89361    45.000  20522.00  25388.60  22018.65  24640.25  20
   14.505   7013.19699   0.99951   0.52165    45.000  23692.75  23704.25  14708.55  28196.35  20
   15.005   7012.96795   0.84126   0.13458    45.000  20993.45  24954.85   4470.10  33216.55  20
   15.505   7012.73891   0.44430   0.00311    45.000  12851.75  28926.45    109.80  35297.50  20
   16.005   7012.50987   0.08629   0.21920    45.000   2916.00  33795.15   6964.15  31771.15  20
   16.505   7012.28083   0.01765   0.63167    45.000    615.05  34846.57  16875.62  26716.24  21
   17.004   7012.05179   0.28525   0.95154    45.000   8751.15  30679.38  22602.58  23753.81  26
   17.505   7011.82275   0.70399   0.95648    45.000  18201.35  25854.80  22617.65  23646.85  20
   18.005   7011.59371   0.97956   0.64143    45.000  22918.65  23396.80  16928.50  26391.90  20
   18.504   7011.36467   0.91990   0.22855    45.000  21900.00  23806.81   7129.00  31192.52  27
   19.005   7011.13563   0.56621   0.00441    45.000  15293.65  27010.60    152.35  34581.25  20
   19.505   7010.90659   0.16620   0.12773    45.000   5302.70  31906.45   4149.05  32483.30  20
   20.005   7010.67755   0.00014   0.51164    45.000      4.70  34456.00  14038.75  27438.80  20
   20.505   7010.44851   0.18384   0.88735    45.000   5784.55  31466.45  21118.30  23799.45  20
   21.005   7010.21947   0.58865   0.99206    45.000  15580.57  26468.67  22718.24  22899.95  21
   21.505   7009.99043   0.93146   0.75264    45.000  21707.95  23305.30  18679.85  24819.35  20
   22.005   7009.76139   0.97248   0.33644    45.000  22286.00  22916.60   9808.85  29155.20  20
   22.505   7009.53235   0.68297   0.03468    45.000  17289.30  25315.05   1157.70  33380.85  20
   23.005   7009.30331   0.26547   0.05841    45.000   7935.45  29892.30   1921.50  32899.30  20
   23.505   7009.07427   0.01203   0.39098    45.000    403.67  33558.33  11040.95  28239.71  21
   24.005   7008.84523   0.09985   0.79979    45.000   3200.95  32059.85  19230.65  24044.80  20
   24.505   7008.61619   0.46756   0.99893    45.000  12718.14  27201.29  22357.57  22381.48  21
   25.005   7008.38715   0.85794   0.84909    45.000  20089.10  23415.65  19943.75  23488.40  20
   25.505   7008.15811   0.99799   0.45542    45.000  22210.43  22255.10  12375.00  27172.81  21
   26.005   7007.92907   0.78978   0.09254    45.000  18831.76  23844.48   2941.76  31789.24  21
   26.505   7007.70003   0.37887   0.01489    45.000  10562.36  27878.86    490.05  32915.14  22
   27.005   7007.47099   0.05270   0.27655    45.000   1697.62  32211.24   8032.00  29043.90  21
   27.505   7007.24195   0.03942   0.69458    45.000   1274.10  32322.75  16991.95  24463.65  20
   28.005   7007.01291   0.34841   0.97645    45.000   9749.95  27984.45  21559.75  22079.65  20
   28.504   7006.78387   0.76237   0.92562    45.000  18082.11  23718.30  20729.07  22394.81  27
   29.005   7006.55483   0.99404   0.57685    45.000  21686.00  21815.95  14621.75  25347.95  20
   29.505   7006.32579   0.87933   0.17428    45.000  19886.35  22615.30   5219.25  29948.90  20
   30.005   7006.09675   0.49912   0.00001    45.000  12964.76  25975.52      0.29  32457.95  21
   30.505   7005.86771   0.11958   0.17553    45.000   3650.85  30532.10   5221.30  29746.90  20
   31.005   7005.63867   0.00613   0.57807    45.000    197.10  32158.35  14465.55  25024.20  20
   31.505   7005.40963   0.23819   0.92597    45.000   6844.05  28734.50  20352.75  21980.05  20
   32.005   7005.18059   0.65337   0.97588    45.000  15786.85  24162.40  21024.05  21543.65  20
   32.505   7004.95155   0.96125   0.69296    45.000  20745.95  21582.24  16445.52  23732.43  21
   33.005   7004.72251   0.94655   0.27508    45.000  20465.70  21621.45   7702.95  28002.85  20
   33.505   7004.49347   0.61945   0.01447    45.000  15018.25  24244.60    456.30  31525.45  20
   34.005   7004.26443   0.20881   0.09353    45.000   5984.50  28660.60   2828.20  30238.85  20
   34.505   7004.03539   0.00186   0.45690    45.000     58.55  31522.85  11735.05  25684.55  20
   35.005   7003.80635   0.14331   0.85038    45.000   4205.90  29348.33  18766.24  22068.19  21
   35.505   7003.57731   0.53421   0.99882    45.000  13217.15  24741.75  20883.70  20908.45  20
   36.005   7003.34827   0.90123   0.79832    45.000  19414.40  21542.15  17829.90  22334.35  20
   36.505   7003.11923   0.98755   0.38914    45.000  20592.40  20852.05  10146.75  26075.05  20
   37.005   7002.89019   0.73281   0.05751    45.000  16650.75  22721.80   1735.60  30179.50  20
   37.505   7002.66115   0.31526   0.03537    45.000   8427.57  26732.57   1075.57  30408.38  21
   38.005   7002.43211   0.02691   0.33817    45.000    818.90  30435.65   8922.15  26384.00  20
   38.505   7002.20307   0.06945   0.75421    45.000   2063.55  29712.30  16837.80  22325.15  20
   39.005   7001.97403   0.41317   0.99239    45.000  10492.95  25396.25  20324.55  20480.45  20
   39.504   7001.74499   0.81667   0.88692    45.000  17710.74  21686.48  18766.19  21158.74  27
   40.005   7001.51595   0.99987   0.51043    45.000  20291.80  20294.40  12378.30  24251.15  20
   40.505   7001.28691   0.83263   0.12670    45.000  17835.80  21421.15   3614.85  28531.55  20
   41.005   7001.05787   0.43257   0.00456    45.000  10753.80  24860.65    137.65  30168.65  20
   41.505   7000.82883   0.07975   0.22908    45.000   2311.20  28980.55   6194.10  27039.15  20
   42.005   7000.59979   0.02090   0.64306    45.000    621.24  29724.10  14615.00  22727.29  21
   42.505   7000.37075   0.29712   0.95698    45.000   7743.25  26061.65  19374.90  20245.85  20
   43.005   7000.14171   0.71530   0.95125    45.000  15717.30  21973.15  19230.90  20216.40  20
   43.505   6999.91267   0.98284   0.62985    45.000  19592.15  19934.30  14240.65  22609.90  20
   44.005   6999.68363   0.91262   0.21761    45.000  18567.10  20344.95   5814.65  26721.30  20
   44.505   6999.45459   0.55380   0.00290    45.000  12806.00  23123.95     85.62  29484.19  21
   45.005   6999.22555   0.15738   0.13584    45.000   4292.95  27278.85   3742.80  27554.00  20
   45.505   6998.99651   0.00055   0.52353    45.000     16.15  29315.55  12166.95  23240.25  20
   46.005   6998.76747   0.19312   0.89474    45.000   5146.35  26648.65  18064.45  20189.60  20
   46.505   6998.53843   0.60034   0.98982    45.000  13445.85  22397.30  19281.20  19479.45  20
   47.005   6998.30939   0.93735   0.74230    45.000  18520.24  19758.05  15709.57  21163.52  21
   47.505   6998.08035   0.96848   0.32533    45.000  18868.30  19482.35   8091.00  24870.85  20
   48.005   6997.85131   0.67189   0.03047    45.000  14491.75  21568.70    864.85  28382.05  20
   48.505   6997.62227   0.25507   0.06410    45.000   6495.15  25464.90   1783.20  27820.95  20
   49.005   6997.39323   0.00957   0.40262    45.000    272.45  28474.35   9588.70  23816.25  20
   49.505   6997.16419   0.10710   0.80923    45.000   2897.90  27059.62  16424.29  20296.38  21
   50.005   6996.93515   0.47939   0.99956    45.000  10984.75  22914.25  18932.15  18940.40  20
