[CRDS Header]
FileType=Wavelength Monitor Calibration
Filename=C:\Picarro\G2000\InstrConfig\Integration\Laser_16236680_NH3.wlm
Date=20170523
Time=135928

[Parameters]
laser_current=36000.00
etalon1_offset=6518.33
reference1_offset=6521.92
etalon2_offset=6499.79
reference2_offset=6515.91

[Data column names]
0=Laser temperature
1=Wavenumber
2=Wavelength ratio 1
3=Wavelength ratio 2
4=Etalon temperature
5=Etalon 1 (offset removed)
6=Reference 1 (offset removed)
7=Etalon 2 (offset removed)
8=Reference 2 (offset removed)
9=Points averaged

[Data]
    5.001   6552.95051   0.88239   1.72630    44.941   5402.33   6122.41   7711.55   4467.09   6
    5.504   6552.70651   1.55398   1.53573    44.941   7360.92   4736.83   7302.96   4755.34   4
    6.007   6552.46407   1.65465   0.81158    44.940   7563.87   4571.28   5075.21   6253.49   5
    6.503   6552.22224   1.10870   0.17396    44.940   6174.92   5569.58   1514.21   8704.84   4
    7.007   6551.97877   0.36340   0.08879    44.940   2870.83   7900.08    815.05   9179.93   6
    7.505   6551.73847   0.02189   0.61643    44.940    214.27   9790.28   4209.21   6828.34   4
    8.006   6551.49447   0.33041   1.38606    44.940   2665.50   8067.41   6922.05   4994.09   6
    8.508   6551.25307   1.06655   1.74924    44.940   6042.83   5665.75   7748.71   4429.76   6
    9.007   6551.01033   1.63963   1.39370    44.940   7538.47   4597.68   6945.21   4983.29   5
    9.509   6550.76783   1.57402   0.63198    44.940   7403.67   4703.68   4294.61   6795.49   5
   10.011   6550.52446   0.92319   0.09419    44.940   5556.87   6019.28    862.61   9158.49   5
   10.514   6550.28096   0.22326   0.16878    44.940   1918.17   8591.58   1474.55   8736.76   6
   11.015   6550.03623   0.03874   0.81253    44.940    375.67   9697.58   5080.96   6253.34   4
   11.516   6549.79272   0.49793   1.53703    44.940   3667.00   7364.41   7290.07   4742.95   6
   12.015   6549.54986   1.25471   1.72254    44.940   6606.42   5265.33   7696.46   4468.09   4
   12.516   6549.30699   1.69219   1.20852    44.940   7633.27   4510.88   6423.81   5315.49   5
   13.012   6549.06589   1.44675   0.44900    44.940   7064.92   4883.33   3326.46   7408.84   4
   13.516   6548.82078   0.71684   0.04872    44.940   4701.42   6558.58    456.96   9379.34   4
   14.013   6548.57752   0.11606   0.28768    44.940   1059.87   9132.88   2324.61   8080.69   5
   14.513   6548.33482   0.09756   1.00982    44.940    899.67   9222.33   5752.96   5697.09   4
   15.016   6548.09178   0.68202   1.64947    44.940   4516.17   6621.91   7446.38   4514.43   6
   15.517   6547.84821   1.42213   1.64703    44.940   6922.47   4867.68   7408.81   4498.29   5
   16.013   6547.60444   1.69684   1.01223    44.940   7513.07   4427.68   5713.01   5644.09   5
   16.517   6547.36051   1.27957   0.28720    44.940   6513.50   5090.41   2282.55   7947.59   6
   17.016   6547.11661   0.51932   0.04922    44.940   3668.27   7063.68    451.21   9167.89   5
   17.514   6546.87254   0.04428   0.45232    44.940    414.67   9364.25   3266.05   7220.93   6
   18.014   6546.62890   0.20836   1.22244    44.940   1745.67   8378.51   6257.93   5119.24   7
   18.514   6546.38547   0.89399   1.72452    44.940   5244.67   5866.68   7419.41   4302.29   5
   19.015   6546.14170   1.56477   1.51937    44.940   7093.87   4533.48   6972.21   4588.89   5
   19.514   6545.89763   1.64976   0.79279    44.940   7226.07   4380.08   4782.41   6032.49   5
   20.013   6545.65356   1.07895   0.15823    44.940   5786.47   5363.08   1324.01   8367.49   5
   20.511   6545.40986   0.33874   0.09894    44.940   2583.27   7626.28    859.61   8688.09   5
   21.012   6545.16592   0.02181   0.65370    44.940    202.47   9283.48   4166.61   6373.89   5
   21.508   6544.92152   0.36372   1.41799    44.940   2719.17   7476.08   6618.21   4667.34   4
   22.007   6544.67735   1.11542   1.74781    44.940   5838.42   5234.33   7295.96   4174.34   4
   22.508   6544.43205   1.66452   1.34588    44.940   7133.27   4285.48   6403.01   4757.49   5
   23.007   6544.18768   1.54047   0.57043    44.940   6865.50   4456.75   3741.71   6559.43   6
   23.509   6543.94201   0.84998   0.07240    44.940   4925.83   5795.25    627.21   8663.59   6
   24.006   6543.69737   0.18007   0.20834    44.940   1476.00   8196.75   1650.88   7923.93   6
   24.506   6543.45230   0.05736   0.89139    44.940    509.07   8875.68   4998.21   5607.29   5
   25.004   6543.20834   0.57284   1.59106    44.940   3744.42   6536.58   6841.71   4300.09   4
   25.507   6542.96230   1.33582   1.69965    44.940   6286.67   4706.25   7036.71   4140.09   6
   26.005   6542.71680   1.70431   1.11771    44.940   7044.33   4133.25   5649.88   5054.93   6
   26.504   6542.47069   1.36431   0.35961    44.940   6308.67   4624.08   2564.61   7131.69   5
   27.004   6542.22519   0.60575   0.04336    44.940   3834.50   6330.25    372.88   8599.93   6
   27.506   6541.97885   0.06677   0.38407    44.940    574.00   8596.41   2677.55   6971.59   6
   28.004   6541.73291   0.16453   1.15334    44.940   1321.67   8033.08   5640.88   4893.59   5
   28.504   6541.48724   0.82963   1.71228    44.940   4659.50   5616.41   6863.55   4008.43   6
   29.005   6541.24014   1.52967   1.56452    44.940   6520.47   4262.68   6556.41   4190.69   5
   29.505   6540.99344   1.66400   0.84429    44.940   6746.83   4054.58   4621.38   5473.76   6
   30.002   6540.74740   1.12308   0.18266    44.939   5500.92   4898.08   1395.46   7639.84   4
   30.504   6540.50093   0.36560   0.08740    44.939   2539.83   6947.08    705.71   8074.26   6
   31.004   6540.25389   0.02153   0.62550    44.939    185.27   8603.68   3735.01   5971.29   5
   31.505   6540.00719   0.35096   1.40396    44.939   2443.92   6963.58   6072.96   4325.59   4
   32.005   6539.76018   1.10700   1.74589    44.939   5363.27   4844.88   6716.61   3847.09   5
   32.503   6539.51265   1.65919   1.34495    44.939   6555.27   3950.88   5882.41   4373.69   5
   33.004   6539.26501   1.52875   0.56120    44.939   6287.87   4113.08   3396.81   6052.89   5
   33.503   6539.01790   0.83480   0.06955    44.939   4480.07   5366.68    554.41   7971.89   5
   34.003   6538.77036   0.16596   0.22165    44.939   1264.00   7616.58   1601.88   7227.26   6
   34.503   6538.52356   0.06669   0.92050    44.939    540.87   8110.68   4678.21   5082.29   5
   35.002   6538.27472   0.61089   1.61041    44.939   3604.07   5899.68   6319.41   3924.09   5
   35.502   6538.02745   1.37161   1.67538    44.939   5859.07   4271.68   6423.21   3833.89   5
   36.004   6537.77971   1.69841   1.05706    44.939   6457.50   3802.08   5023.05   4751.93   6
   36.503   6537.53134   1.30795   0.31191    44.939   5654.87   4323.48   2092.21   6707.89   5
   37.001   6537.28367   0.53885   0.04666    44.939   3240.67   6014.08    367.46   7875.84   4
   37.504   6537.03470   0.04447   0.44984    44.939    357.33   8036.41   2782.55   6185.59   6
   38.003   6536.78599   0.21713   1.23427    44.939   1551.67   7146.41   5380.05   4358.93   6
   38.503   6536.53705   0.92554   1.73011    44.939   4576.67   4944.88   6330.61   3659.09   5
   39.002   6536.28851   1.58476   1.49044    44.939   6064.50   3826.75   5853.55   3927.43   6
   39.502   6536.03951   1.62131   0.73103    44.939   6105.17   3765.58   3850.71   5267.59   6
   40.003   6535.79057   1.00251   0.12453    44.939   4717.87   4706.08    901.61   7240.09   5
   40.501   6535.54186   0.26961   0.13464    44.939   1810.17   6714.25    963.05   7152.76   6
   41.002   6535.29406   0.03032   0.75839    44.939    236.00   7783.41   3867.05   5099.09   6
   41.503   6535.04372   0.47064   1.51536    44.939   2788.27   5924.48   5730.61   3781.69   5
   42.003   6534.79405   1.24641   1.72579    44.939   5182.83   4158.25   6045.88   3503.26   6
   42.503   6534.54424   1.69536   1.20195    44.938   5982.50   3528.75   4999.38   4159.43   6
   43.003   6534.29417   1.41918   0.41762    44.939   5478.52   3860.37   2453.36   5874.66   7
   43.504   6534.04406   0.66043   0.04443    44.939   3462.27   5242.48    323.81   7288.89   5
   44.005   6533.79372   0.08171   0.34859    44.939    589.27   7211.48   2094.61   6008.89   5
   44.503   6533.54338   0.14772   1.11917    44.938   1017.27   6886.68   4697.21   4197.09   5
   45.004   6533.29418   0.81097   1.70371    44.938   3904.83   4815.08   5814.05   3412.59   6
   45.505   6533.04347   1.52656   1.57000    44.939   5510.07   3609.48   5546.01   3532.49   5
   46.005   6532.79336   1.66464   0.83958    44.938   5688.87   3417.48   3876.41   4617.09   5
   46.504   6532.54306   1.10601   0.17311    44.938   4612.33   4170.25   1122.88   6486.59   6
   47.004   6532.29285   0.34297   0.09676    44.938   2041.67   5952.83    656.46   6785.09   4
   47.504   6532.04188   0.02218   0.66710    44.938    160.17   7221.58   3277.46   4913.09   4
   48.005   6531.79054   0.39697   1.44978    44.938   2264.47   5704.48   5184.81   3576.29   5
   48.504   6531.53990   1.17484   1.74166    44.938   4652.67   3960.28   5626.41   3230.49   5
   49.006   6531.28879   1.68528   1.27259    44.938   5565.27   3302.28   4808.21   3778.29   5
   49.504   6531.03728   1.47442   0.48035    44.938   5188.87   3519.28   2538.81   5285.49   5
   50.005   6530.78584   0.72980   0.05052    44.938   3434.83   4706.58    340.71   6747.43   5
