[CRDS Header]
FileType=Wavelength Monitor Calibration
Filename=Laser_818517_CO2.wlm
Date=20091106
Time=172116

[Parameters]
laser_current=36000.00
etalon1_offset=6570.67
reference1_offset=6559.17
etalon2_offset=6655.13
reference2_offset=6578.77

[Data column names]
0=Laser temperature
1=Wavenumber
2=Wavelength ratio 1
3=Wavelength ratio 2
4=Etalon temperature
5=Etalon 1 (offset removed)
6=Reference 1 (offset removed)
7=Etalon 2 (offset removed)
8=Reference 2 (offset removed)
9=Points averaged

[Data]
    8.000   6245.67747   0.63076   0.87451    45.021  21267.33  33717.09  22382.91  25594.70  23
    8.502   6245.44597   1.24123   0.72202    45.021  31638.85  25489.93  20357.25  28194.93  71
    9.003   6245.21582   1.49779   0.37045    45.021  34687.35  23159.06  13732.63  37069.94  69
    9.505   6244.98332   1.19625   0.09614    45.021  30852.96  25791.51   4631.76  48179.12  19
   10.003   6244.75283   0.57583   0.06660    45.022  19766.92  34327.97   3251.89  48830.73  71
   10.503   6244.52167   0.10740   0.29011    45.023   4885.79  45493.87  11614.95  40037.03  72
   11.002   6244.29051   0.10202   0.64830    45.023   4702.53  46092.52  19427.97  29967.54  71
   11.502   6244.05835   0.56696   0.85676    45.023  19558.01  34496.19  22335.73  26070.06  68
   12.002   6243.82719   1.20094   0.74188    45.023  30941.98  25764.91  20899.51  28171.07  71
   12.503   6243.59736   1.52391   0.40590    45.022  34714.73  22780.04  14772.28  36394.33  71
   13.006   6243.36554   1.28101   0.11551    45.022  31759.43  24792.53   5557.62  48112.88  20
   13.507   6243.13371   0.66099   0.05636    45.022  21474.62  32488.78   2769.53  49141.85  21
   14.008   6242.90221   0.14248   0.24885    45.022   6214.18  43614.18  10522.77  42285.68  20
   14.504   6242.67306   0.07685   0.59573    45.022   3543.06  46104.20  18747.95  31470.57  70
   15.008   6242.44023   0.50521   0.83336    45.023  17700.57  35036.64  22119.82  26542.80  21
   15.510   6242.20840   1.15848   0.75614    45.022  30054.44  25943.09  21246.39  28098.70  19
   16.010   6241.97657   1.53992   0.43587    45.022  34275.19  22257.83  15453.87  35455.75  21
   16.504   6241.74708   1.35343   0.13598    45.022  32282.72  23852.61   6486.32  47701.30  69
   17.010   6241.51392   0.73764   0.04943    45.022  22558.33  30582.83   2431.82  49199.77  22
   17.511   6241.28143   0.17925   0.21551    45.022   7491.61  41797.28   9425.82  43739.18  22
   18.011   6241.04927   0.06205   0.55822    45.023   2813.81  45346.64  17832.44  31945.89  21
   18.513   6240.81744   0.45208   0.81617    45.023  15979.00  35346.77  21628.70  26500.17  18
   19.011   6240.58661   1.10108   0.77328    45.023  28532.61  25913.78  21065.82  27242.09  22
   19.513   6240.35512   1.52682   0.47067    45.023  33336.56  21833.94  15872.87  33724.67  18
   20.011   6240.12496   1.39154   0.15657    45.023  31996.48  22993.64   7171.53  45804.56  21
   20.511   6239.89313   0.80541   0.04505    45.023  23232.83  28846.74   2205.82  48967.36  22
   21.012   6239.66097   0.22017   0.18615    45.022   8807.65  40006.46   8187.18  43982.23  19
   21.504   6239.43148   0.04743   0.51693    45.022   2112.05  44525.76  16381.63  31691.05  73
   22.009   6239.19665   0.38448   0.80498    45.023  13868.24  36071.97  20866.96  25922.23  21
   22.511   6238.96349   1.02705   0.79801    45.023  26463.50  25766.88  20404.59  25569.23  18
   23.010   6238.73133   1.48610   0.50945    45.023  32234.93  21690.98  16087.12  31578.08  20
   23.504   6238.50150   1.40692   0.18381    45.022  30958.19  22004.27   7720.15  42001.14  70
   24.008   6238.26868   0.85210   0.04395    45.022  23576.93  27669.58   2128.67  48439.03  20
   24.508   6238.03685   0.25638   0.16454    45.022   9697.38  37824.49   6975.87  42396.56  21
   25.008   6237.80435   0.04155   0.49593    45.021   1827.65  43983.30  15285.50  30822.38  19
   25.504   6237.57453   0.32294   0.80030    45.021  11696.52  36219.71  19663.56  24570.42  69
   26.003   6237.34304   0.93584   0.83118    45.022  24398.81  26071.62  19841.23  23871.11  71
   26.505   6237.10854   1.43198   0.55685    45.022  30481.33  21286.14  15992.68  28719.91  22
   27.006   6236.87471   1.40941   0.21008    45.021  29914.44  21224.83   8097.24  38544.65  19
   27.506   6236.64188   0.89215   0.04552    45.021  23400.47  26229.24   2118.28  46530.23  22
   28.006   6236.40906   0.29056   0.14777    45.021  10389.78  35757.77   6005.81  40644.06  18
   28.503   6236.17823   0.03961   0.47210    45.022   1693.12  42744.48  14068.49  29800.17  72
   29.005   6235.94440   0.28580   0.79965    45.022  10203.75  35702.93  18591.50  23249.70  19
   29.505   6235.71157   0.88553   0.85259    45.022  22832.86  25784.45  19142.96  22452.85  21
   30.006   6235.47908   1.39912   0.59083    45.022  28855.52  20624.11  15647.68  26484.18  21
   30.506   6235.24625   1.42450   0.23525    45.022  28977.56  20342.33   8412.70  35760.34  18
   31.006   6235.01342   0.93913   0.04944    45.022  23057.71  24552.21   2162.96  43752.46  21
   31.506   6234.77993   0.32637   0.13283    45.022  10952.71  33558.97   5236.01  39418.23  21
   32.006   6234.54710   0.04116   0.45152    45.022   1675.44  40702.66  13044.31  28889.62  18
   32.505   6234.31461   0.25492   0.78753    45.022   8898.61  34908.19  17699.32  22474.50  22
   33.005   6234.08111   0.84722   0.86208    45.023  21266.86  25102.09  18442.97  21393.60  19
   33.505   6233.84728   1.39258   0.61220    45.022  27589.76  19811.92  15358.15  25086.75  21
   34.005   6233.61346   1.45484   0.25171    45.022  28014.49  19256.04   8524.92  33868.65  19
   34.505   6233.38063   0.98846   0.05273    45.023  22704.47  22969.55   2220.41  42109.32  22
   35.005   6233.14747   0.36173   0.11999    45.022  11317.33  31287.20   4654.18  38787.07  19
   35.505   6232.91397   0.04471   0.42708    45.022   1724.38  38564.73  12222.72  28619.08  21
   36.005   6232.68014   0.23807   0.76713    45.022   7993.61  33576.28  16957.82  22105.50  22
   36.505   6232.44732   0.82982   0.85628    45.022  20144.28  24275.56  17923.39  20931.81  19
   37.005   6232.21415   1.39947   0.62220    45.022  26444.33  18896.04  15062.91  24209.14  24
   37.505   6231.97932   1.49467   0.26388    45.022  27342.53  18293.33   8681.32  32899.43  20
   38.005   6231.74450   1.03377   0.05507    45.022  22184.72  21459.99   2260.09  41042.56  18
   38.504   6231.51100   0.38950   0.11032    45.022  11516.67  29567.87   4280.53  38800.85  21
   39.002   6231.27917   0.04918   0.40257    45.022   1783.85  36272.42  11435.13  28405.33  71
   39.503   6231.04501   0.22263   0.74137    45.022   7259.53  32607.88  16423.17  22152.38  20
   40.002   6230.81185   0.81485   0.84328    45.022  18879.74  23169.67  17193.65  20388.98  69
   40.503   6230.57602   1.40669   0.62157    45.022  25689.67  18262.45  14842.96  23879.66  21
   41.004   6230.34219   1.52003   0.27020    45.022  26166.38  17214.35   8547.82  31635.57  23
   41.502   6230.11003   1.07052   0.05785    45.022  21905.36  20462.36   2339.46  40441.63  69
   42.004   6229.87420   0.41264   0.10167    45.022  11411.95  27655.97   3853.68  37902.04  21
   42.505   6229.63804   0.05138   0.38874    45.022   1794.83  34929.83  10942.42  28148.34  18
   43.006   6229.40421   0.21634   0.72615    45.021   6707.87  31006.69  15556.13  21422.76  15
   43.503   6229.17205   0.79881   0.83386    45.022  17915.89  22428.31  16561.00  19860.74  70
   44.004   6228.93655   1.39371   0.62304    45.022  24290.92  17429.01  14199.91  22791.50  22
   44.505   6228.70072   1.51464   0.27259    45.022  25019.53  16518.48   8280.02  30375.33  20
   45.006   6228.46589   1.06575   0.05798    45.022  20826.43  19541.68   2241.30  38657.46  21
   45.506   6228.23240   0.41649   0.09840    45.022  11000.78  26413.43   3570.57  36286.73  20
   46.006   6227.99824   0.05320   0.37942    45.022   1782.58  33505.78  10244.32  26999.93  20
   46.506   6227.76274   0.20585   0.72063    45.022   6135.13  29804.78  14633.07  20306.03  20
   47.006   6227.52758   0.78440   0.83560    45.022  16967.63  21631.53  15716.12  18808.28  20
   47.506   6227.29342   1.36784   0.62835    45.022  22795.13  16665.03  13366.77  21272.73  20
   48.005   6227.05925   1.49170   0.27968    45.022  23754.15  15924.19   7965.73  28482.09  22
   48.506   6226.82342   1.05360   0.05971    45.022  19583.17  18586.99   2139.59  35830.12  18
   49.006   6226.58726   0.40900   0.09922    45.021  10427.23  25494.38   3375.17  34016.18  20
   49.505   6226.35210   0.05207   0.38409    45.022   1660.65  31893.83   9567.55  24909.91  19
   50.006   6226.11794   0.20026   0.72928    45.021   5745.23  28689.23  13785.42  18902.88  20
