[CRDS Header]
FileType=Wavelength Monitor Calibration
Filename=Laser_818517_CO2.wlm
Date=20091111
Time=150001

[Parameters]
laser_current=36000.00
etalon1_offset=6614.77
reference1_offset=6696.79
etalon2_offset=6637.85
reference2_offset=6659.12

[Data column names]
0=Laser temperature
1=Wavenumber
2=Wavelength ratio 1
3=Wavelength ratio 2
4=Etalon temperature
5=Etalon 1 (offset removed)
6=Reference 1 (offset removed)
7=Etalon 2 (offset removed)
8=Reference 2 (offset removed)
9=Points averaged

[Data]
    7.999   6245.68781   1.46521   1.17567    44.958  28902.17  19725.63  27684.95  23548.33  77
    8.505   6245.45531   1.52441   0.47818    44.958  29320.39  19233.88  14985.15  31337.77  18
    9.005   6245.22482   1.03107   0.09715    44.958  23937.43  23216.13   3838.36  39510.21  24
    9.503   6244.99500   0.38131   0.23427    44.959  12112.78  31766.81   8657.48  36955.00  67
   10.005   6244.76183   0.04944   0.82788    44.959   1966.62  39774.32  22649.87  27358.94  18
   10.505   6244.53034   0.23412   1.48948    44.960   8177.58  34929.51  31084.30  20869.23  20
   11.006   6244.29885   0.82943   1.68538    44.960  20933.51  25238.40  32631.48  19361.50  21
   11.506   6244.06702   1.40702   1.24184    44.961  27752.41  19724.30  27303.33  21986.20  22
   12.007   6243.83553   1.50312   0.53113    44.960  28538.62  18986.27  15458.42  29104.66  18
   12.507   6243.60603   1.05197   0.10943    44.961  23655.94  22487.45   4049.72  37007.31  21
   13.003   6243.37688   0.41403   0.21062    44.961  12668.59  30598.58   7487.89  35551.79  69
   13.503   6243.14572   0.05628   0.78427    44.960   2186.28  38847.26  20860.81  26599.32  71
   14.007   6242.91256   0.20013   1.47572    44.960   6990.89  34932.26  29595.24  20054.78  21
   14.509   6242.68140   0.76827   1.72070    44.960  19470.12  25343.16  31635.99  18385.51  19
   15.004   6242.45190   1.35411   1.31665    44.960  26400.12  19496.35  26975.73  20488.35  72
   15.509   6242.21841   1.50022   0.58571    44.960  27791.53  18525.01  15962.20  27253.28  20
   16.010   6241.98625   1.08193   0.12257    44.960  23278.14  21515.69   4288.80  34992.71  23
   16.511   6241.75409   0.44193   0.19301    44.960  13013.99  29449.55   6704.38  34736.88  21
   17.011   6241.52293   0.06264   0.74972    44.960   2350.43  37524.01  19551.80  26079.58  20
   17.511   6241.29110   0.17843   1.44490    44.960   6183.68  34657.96  28614.00  19803.58  20
   18.011   6241.05927   0.73298   1.72312    44.960  18352.41  25038.71  30808.46  17879.47  22
   18.511   6240.82778   1.34047   1.34171    44.960  25688.03  19163.56  26750.30  19937.68  20
   19.010   6240.59662   1.51797   0.62301    44.960  27235.64  17942.12  16376.74  26287.43  22
   19.511   6240.36546   1.12855   0.13502    44.960  23215.65  20571.42   4616.20  34190.30  19
   20.010   6240.13463   0.48482   0.17031    44.960  13575.18  28001.30   5939.74  34875.93  22
   20.505   6239.90514   0.07619   0.68615    44.960   2729.84  35832.55  18173.76  26487.34  68
   21.010   6239.67165   0.15770   1.38495    44.960   5390.12  34179.74  27844.25  20104.99  19
   21.510   6239.43982   0.70042   1.69687    44.960  17179.27  24527.78  30084.29  17729.26  21
   22.010   6239.20666   1.33790   1.35742    44.960  25113.56  18770.93  26870.96  19795.69  21
   22.504   6238.97550   1.55643   0.65410    44.960  26538.99  17051.18  16724.00  25568.56  69
   23.008   6238.74134   1.18434   0.14456    44.960  23278.66  19655.55   4942.05  34188.31  21
   23.508   6238.50951   0.52510   0.15370    44.960  13731.23  26150.02   5356.58  34851.02  21
   24.008   6238.27835   0.08537   0.64606    44.960   2930.85  34331.02  17487.34  27067.88  21
   24.508   6238.04586   0.14618   1.32709    44.960   4777.00  32680.05  26764.42  20167.77  18
   25.008   6237.81436   0.68804   1.65993    44.960  16432.78  23883.71  29644.92  17859.10  18
   25.507   6237.58253   1.34639   1.35897    44.960  24184.08  17962.21  26477.43  19483.45  21
   26.007   6237.35071   1.60533   0.67319    44.960  26113.61  16266.78  17003.05  25257.45  21
   26.506   6237.11788   1.24922   0.15641    44.960  23019.58  18427.26   5264.95  33661.48  20
   27.005   6236.88539   0.57056   0.13849    44.960  13992.41  24524.18   4843.78  34976.55  27
   27.504   6236.65222   0.09734   0.60762    44.959   3161.40  32479.67  16587.43  27299.37  35
   28.006   6236.41906   0.13747   1.28562    44.959   4312.64  31370.86  25935.68  20173.76  17
   28.505   6236.18690   0.67976   1.63706    44.960  15731.84  23143.26  29090.67  17770.10  23
   29.003   6235.95508   1.36061   1.36376    44.959  23428.66  17219.24  26051.38  19102.65  70
   29.504   6235.72125   1.64359   0.68568    44.959  25673.99  15620.64  17043.48  24856.31  21
   30.005   6235.48875   1.29497   0.16377    44.959  22614.93  17463.71   5381.00  32857.83  20
   30.505   6235.25626   0.60281   0.13064    44.959  14095.37  23382.83   4526.53  34648.69  21
   31.005   6235.02276   0.10627   0.58845    44.959   3287.99  30938.74  15818.43  26881.40  21
   31.505   6234.78960   0.13170   1.27247    44.959   4006.68  30422.81  25277.80  19865.13  20
   32.005   6234.55677   0.67313   1.64270    44.959  15085.75  22411.31  28348.43  17257.26  21
   32.505   6234.32428   1.36737   1.38392    44.959  22822.98  16691.21  25597.70  18496.53  20
   33.003   6234.09212   1.66231   0.70919    44.959  24979.92  15027.20  16868.21  23785.17  68
   33.504   6233.85729   1.31630   0.17049    44.959  22077.82  16772.62   5367.60  31482.70  22
   34.004   6233.62313   0.61331   0.13040    44.959  13760.18  22435.85   4319.01  33121.11  22
   34.505   6233.38997   0.10907   0.59252    44.959   3242.73  29731.71  15192.54  25640.60  18
   35.005   6233.15714   0.12849   1.28950    44.959   3768.73  29331.30  24289.24  18836.24  22
   35.505   6232.92331   0.66739   1.67624    44.960  14423.23  21611.31  27259.30  16262.13  20
   36.005   6232.68982   1.36202   1.41510    44.959  21803.50  16008.17  24485.42  17302.97  22
   36.504   6232.45632   1.65447   0.72454    44.959  23888.63  14438.86  16126.50  22257.58  20
   37.004   6232.22349   1.30950   0.17636    44.959  20951.83  15999.91   5138.65  29137.68  20
   37.505   6231.98900   0.60951   0.13281    44.959  13128.38  21539.11   4093.30  30820.41  19
   38.004   6231.75417   0.10681   0.60800    44.959   3021.27  28285.88  14304.77  23527.69  21
   38.504   6231.52034   0.12900   1.32347    44.959   3632.75  28161.79  23079.52  17438.67  19
   39.004   6231.28718   0.66078   1.71283    44.959  13503.57  20435.82  25419.49  14840.62  23
   39.504   6231.05368   1.33938   1.44172    44.959  20643.48  15412.76  23147.05  16055.18  20
   40.004   6230.81919   1.62169   0.73197    44.959  22156.99  13662.93  14863.86  20306.59  21
   40.503   6230.58603   1.27560   0.17581    44.959  19747.36  15480.90   4768.06  27120.39  70
   41.004   6230.35120   0.58894   0.13701    44.959  12052.04  20464.02   3846.24  28072.50  21
   41.502   6230.11870   0.10375   0.61695    44.959   2841.23  27384.80  13544.33  21953.77  71
   42.004   6229.88287   0.12864   1.34177    44.959   3438.23  26727.50  21446.72  15983.88  21
   42.505   6229.64704   0.65825   1.72821    44.959  12961.75  19691.21  24058.91  13921.26  21
   43.005   6229.41255   1.31895   1.43579    44.959  19335.13  14659.51  21443.60  14935.03  20
   43.506   6229.17939   1.57638   0.72001    44.959  20958.53  13295.31  13875.35  19271.03  20
   44.006   6228.94489   1.22677   0.16834    44.959  18408.08  15005.40   4302.96  25561.02  21
   44.506   6228.70906   0.55226   0.14415    44.959  11123.04  20140.98   3828.29  26558.26  21
   45.006   6228.47423   0.09154   0.63945    44.958   2450.56  26771.32  13171.31  20598.10  18
   45.505   6228.24074   0.13414   1.34960    44.959   3470.95  25875.62  20468.10  15166.06  22
   46.005   6228.00658   0.65597   1.71189    44.959  12511.56  19073.31  22865.81  13357.07  21
   46.505   6227.77108   1.29892   1.40373    44.958  18408.80  14172.36  20185.34  14379.83  21
   47.006   6227.53592   1.53610   0.68494    44.959  20000.73  13020.46  12910.55  18849.28  20
   47.505   6227.30142   1.17726   0.15570    44.959  17256.43  14658.11   3848.70  24718.83  20
   48.006   6227.06693   0.52174   0.14919    44.959  10387.52  19909.27   3845.91  25779.06  17
   48.506   6226.83176   0.08244   0.64976    44.959   2141.70  25978.86  12750.09  19622.76  17
   49.005   6226.59527   0.14552   1.34929    44.959   3631.91  24957.90  19765.78  14649.02  22
   49.505   6226.36010   0.67763   1.67745    44.959  12183.03  17978.81  21553.05  12848.68  20
   50.005   6226.12594   1.30117   1.34869    44.958  17684.84  13591.49  19029.37  14109.55  18
