[CRDS Header]
FileType=Wavelength Monitor Calibration
Filename=Laser_818028_CH4.wlm
Date=20091106
Time=173538

[Parameters]
laser_current=36000.00
etalon1_offset=6568.03
reference1_offset=6556.28
etalon2_offset=6654.04
reference2_offset=6575.25

[Data column names]
0=Laser temperature
1=Wavenumber
2=Wavelength ratio 1
3=Wavelength ratio 2
4=Etalon temperature
5=Etalon 1 (offset removed)
6=Reference 1 (offset removed)
7=Etalon 2 (offset removed)
8=Reference 2 (offset removed)
9=Points averaged

[Data]
    7.999   6062.60248   1.52509   0.42128    45.020  16254.97  10658.40   7070.85  16784.27  19
    8.504   6062.38300   1.29529   0.13119    45.020  15159.10  11703.22   2955.02  22524.37  16
    9.005   6062.16485   0.71895   0.04491    45.020  10505.97  14613.00   1104.02  24582.41  18
    9.503   6061.94870   0.19880   0.18989    45.020   3874.27  19487.99   3956.33  20834.48  71
   10.005   6061.72921   0.04736   0.50878    45.020   1022.50  21589.72   7882.96  15493.81  17
   10.506   6061.51039   0.34853   0.79263    45.021   6070.54  17417.72   9838.25  12412.18  14
   11.005   6061.29224   0.93691   0.82871    45.021  12223.57  13046.72  10162.31  12262.85  20
   11.506   6061.07476   1.42619   0.59523    45.021  14818.62  10390.37   8275.26  13902.55  20
   12.006   6060.85661   1.47311   0.26554    45.022  15330.25  10406.72   4973.40  18729.30  18
   12.506   6060.63712   1.04191   0.06132    45.021  12372.71  11874.98   1397.49  22790.69  19
   13.006   6060.41764   0.43701   0.08389    45.021   7047.81  16127.39   1895.79  22598.75  18
   13.506   6060.19882   0.06839   0.32363    45.021   1366.40  19979.10   5539.91  17118.03  21
   14.006   6059.98000   0.13597   0.65069    45.022   2598.59  19112.20   8508.58  13076.18  21
   14.507   6059.76085   0.60728   0.83157    45.021   8721.39  14361.61   9565.96  11503.43  19
   15.008   6059.54070   1.19863   0.72606    45.022  12935.29  10791.72   8776.22  12087.48  19
   15.509   6059.32055   1.49288   0.41826    45.022  14559.92   9752.89   6443.52  15405.47  18
   16.009   6059.10206   1.28046   0.13495    45.022  13128.84  10253.27   2677.55  19841.06  22
   16.510   6058.88291   0.71993   0.04240    45.022   9573.13  13297.46    963.64  22727.17  19
   17.011   6058.66376   0.19886   0.17913    45.022   3459.20  17395.50   3365.24  18787.41  18
   17.510   6058.44327   0.04482   0.48801    45.022    885.54  19757.62   6932.44  14205.65  21
   18.004   6058.22445   0.33010   0.76512    45.022   5280.48  15996.96   8670.20  11331.81  67
   18.510   6058.00297   0.90999   0.80539    45.022  10768.92  11834.22   8907.02  11059.25  18
   19.004   6057.78448   1.38236   0.57873    45.022  13380.71   9679.63   7431.70  12841.60  69
   19.509   6057.56200   1.42204   0.25188    45.022  13456.77   9463.02   4263.31  16926.25  20
   20.011   6057.33984   0.98590   0.05653    45.022  11127.03  11286.28   1200.40  21235.69  18
   20.510   6057.11835   0.39989   0.08921    45.022   5977.62  14948.82   1799.31  20169.05  20
   21.010   6056.89820   0.05857   0.33637    45.022   1108.52  18926.32   5240.91  15581.35  20
   21.510   6056.67772   0.15025   0.66232    45.022   2634.93  17537.48   7783.29  11751.65  21
   22.011   6056.45590   0.63328   0.82964    45.022   8364.20  13208.00   8752.35  10549.64  18
   22.510   6056.23441   1.20670   0.70770    45.022  12117.97  10042.27   7982.91  11280.10  20
   23.010   6056.01359   1.46433   0.39346    45.022  13376.58   9134.94   5675.52  14424.80  18
   23.511   6055.79344   1.22217   0.11900    45.022  12120.47   9917.22   2245.65  18871.25  16
   24.009   6055.57128   0.65395   0.04623    45.022   8369.88  12799.20    959.44  20752.65  21
   24.504   6055.35013   0.16242   0.20766    45.022   2755.57  16966.29   3544.77  17070.37  69
   25.008   6055.12564   0.05689   0.53789    45.022   1049.08  18442.14   6821.59  12682.12  19
   25.507   6054.90316   0.39755   0.80547    45.022   5812.12  14620.01   8375.48  10398.22  21
   26.007   6054.68067   0.99085   0.80697    45.022  10767.36  10866.83   8414.02  10426.64  18
   26.507   6054.45785   1.43185   0.54141    45.022  12907.36   9014.50   6720.63  12413.14  18
   27.006   6054.23469   1.39298   0.21418    45.022  12769.20   9166.86   3565.19  16645.70  22
   27.506   6054.01187   0.90500   0.04752    45.022  10018.36  11070.05    952.02  20032.41  18
   28.006   6053.79039   0.32517   0.12060    45.021   4848.09  14909.37   2215.14  18367.10  17
   28.506   6053.56823   0.04306   0.40694    45.022    777.25  18050.44   5620.13  13810.80  18
   29.006   6053.34408   0.22225   0.73841    45.021   3522.08  15847.61   7856.43  10639.69  19
   29.503   6053.12126   0.77077   0.85867    45.022   9068.41  11765.37   8517.72   9919.64  68
   30.004   6052.89743   1.33399   0.67530    45.022  12102.97   9072.77   7387.06  10938.95  20
   30.502   6052.67595   1.50161   0.33702    45.022  12985.03   8647.39   4873.22  14459.67  69
   31.004   6052.45013   1.14594   0.08456    45.021  11016.42   9613.44   1548.68  18313.58  18
   31.505   6052.22464   0.52506   0.06723    45.021   6824.72  12998.07   1285.61  19123.90  20
   32.004   6052.00081   0.09346   0.29288    45.022   1536.61  16441.48   4279.11  14610.38  33
   32.504   6051.77666   0.10959   0.64106    45.021   1810.66  16521.46   7120.17  11106.90  19
   33.005   6051.55284   0.56621   0.85773    45.021   6962.02  12295.77   8080.21   9420.50  20
   33.505   6051.32735   1.19044   0.77001    45.021  11014.08   9252.11   7656.18   9942.97  18
   34.004   6051.10219   1.52441   0.44946    45.021  12338.20   8093.77   5577.10  12408.34  22
   34.505   6050.87770   1.32206   0.14371    45.021  11307.03   8552.60   2343.61  16308.22  17
   35.004   6050.65455   0.73690   0.04444    45.021   8082.74  10968.58    821.77  18493.46  21
   35.504   6050.43006   0.19526   0.19305    45.021   2806.20  14371.83   2931.63  15186.19  18
   36.005   6050.20390   0.05127   0.52622    45.021    827.81  16146.39   6001.85  11405.64  18
   36.504   6049.97741   0.38843   0.81159    45.021   4873.71  12547.19   7302.38   8997.59  19
   37.004   6049.75193   1.00558   0.82110    45.021   9431.78   9379.43   7444.77   9066.84  21
   37.502   6049.52844   1.46548   0.55427    45.021  11081.18   7561.49   5821.34  10502.80  69
   38.003   6049.30161   1.42550   0.21809    45.021  11022.69   7732.53   3101.06  14219.41  21
   38.502   6049.07512   0.91308   0.04711    45.021   8408.57   9209.01    794.16  16859.25  69
   39.003   6048.84797   0.31249   0.12523    45.021   3920.55  12546.25   1928.38  15398.90  19
   39.504   6048.62381   0.04129   0.41466    45.021    613.02  14848.47   4715.26  11371.40  20
   40.002   6048.40032   0.23824   0.73370    45.021   3056.39  12828.93   6455.95   8799.11  68
   40.504   6048.17183   0.80593   0.83521    45.021   7527.92   9340.72   6835.54   8184.17  19
   41.004   6047.94367   1.35088   0.63260    45.021   9796.39   7251.84   5783.08   9141.75  17
   41.505   6047.71785   1.46015   0.29520    45.021  10182.56   6973.63   3574.10  12107.56  22
   42.003   6047.49403   1.06267   0.06962    45.021   8391.68   7896.84   1049.58  15075.69  68
   42.504   6047.26554   0.44933   0.07713    45.021   4807.31  10698.77   1164.72  15101.70  21
   43.005   6047.03605   0.06567   0.32171    45.021    877.92  13367.78   3630.13  11283.97  18
   43.504   6046.80922   0.14591   0.65682    45.021   1852.19  12693.94   5632.12   8574.78  32
   44.005   6046.58273   0.63636   0.82699    45.021   5877.97   9236.90   6166.20   7456.16  17
   44.505   6046.35691   1.21759   0.69697    45.021   8612.20   7073.17   5642.41   8095.61  22
   45.005   6046.12875   1.45914   0.37188    45.021   9247.03   6337.30   3817.64  10265.90  19
   45.505   6045.90026   1.17117   0.10175    45.021   8213.36   7012.94   1372.52  13489.41  18
   46.003   6045.67410   0.58075   0.05221    45.020   5281.75   9094.73    744.02  14249.83  71
   46.505   6045.44728   0.11903   0.24242    45.020   1421.27  11940.48   2744.25  11320.33  17
   47.005   6045.22046   0.08114   0.57668    45.020    993.57  12245.87   4817.21   8353.35  20
   47.505   6044.99097   0.49454   0.81110    45.020   4583.70   9268.61   5660.63   6978.97  18
   48.005   6044.76081   1.10428   0.75007    45.020   7564.60   6850.25   5404.75   7205.64  19
   48.505   6044.53398   1.45403   0.44934    45.020   8561.97   5888.43   3989.25   8878.03  21
   49.005   6044.30716   1.28475   0.14774    45.020   7980.92   6212.05   1742.29  11792.64  18
   49.505   6044.07767   0.71935   0.04244    45.020   5632.37   7829.87    563.96  13289.05  20
   50.005   6043.84651   0.18363   0.18961    45.020   1932.12  10522.12   2096.91  11059.15  20
